LabVIEW Measurement	
Writer_Version	2
Reader_Version	2
Separator	Tab
Decimal_Separator	.
Multi_Headings	No
X_Columns	No
Time_Pref	Relative
Operator	ANDAI35
Date	2022/04/22
Time	18:01:20.7920098304748535156
***End_of_Header***	
	
Channels	14														
Samples	1	1	1	1	1	1	1	1	1	1	1	1	1	1	
Date	2022/04/22	2022/04/22	2022/04/22	2022/04/22	2022/04/22	2022/04/22	2022/04/22	2022/04/22	2022/04/22	2022/04/22	2022/04/22	2022/04/22	2022/04/22	2022/04/22	
Time	18:01:20.7920098304748535156	18:01:20.7920098304748535156	18:01:20.7920098304748535156	18:01:20.7920098304748535156	18:01:20.7920098304748535156	18:01:20.7920098304748535156	18:01:20.7920098304748535156	18:01:20.7920098304748535156	18:01:20.7920098304748535156	18:01:20.7920098304748535156	18:01:20.7920098304748535156	18:01:20.7920098304748535156	18:01:20.7920098304748535156	18:01:20.7920098304748535156	
X_Dimension	Time	Time	Time	Time	Time	Time	Time	Time	Time	Time	Time	Time	Time	Time	
X0	0.0000000000000000E+0	0.0000000000000000E+0	0.0000000000000000E+0	0.0000000000000000E+0	0.0000000000000000E+0	0.0000000000000000E+0	0.0000000000000000E+0	0.0000000000000000E+0	0.0000000000000000E+0	0.0000000000000000E+0	0.0000000000000000E+0	0.0000000000000000E+0	0.0000000000000000E+0	0.0000000000000000E+0	
Delta_X	1.000000	1.000000	1.000000	1.000000	1.000000	1.000000	1.000000	1.000000	1.000000	1.000000	1.000000	1.000000	1.000000	1.000000	
***End_of_Header***															
X_Value	Untitled	Untitled 1	Untitled 2	Untitled 3	Untitled 4	Untitled 5	Untitled 6	Untitled 7	Untitled 8	Untitled 9	Untitled 10	Untitled 11	Untitled 12	Untitled 13	Comment
	297.520390	297.273668	297.151945	297.438834	297.379016	297.109411	297.132728	297.077899	297.135740	297.148174	297.088018	297.073030	297.130470	297.100023
	297.453936	297.277100	297.159490	297.467118	297.322197	297.108284	297.151945	297.068537	297.122192	297.069660	297.089518	297.061802	297.129340	297.124073
	297.493917	297.231046	297.158358	297.488085	297.333307	297.119935	297.081645	297.083145	297.128588	297.114672	297.108284	297.129340	297.119183	297.127082
	297.458586	297.208659	297.160245	297.485365	297.343278	297.125577	297.149683	297.109411	297.185182	297.071158	297.112417	297.067040	297.179510	297.094769
	297.461688	297.260331	297.226869	297.448900	297.388258	297.113545	297.095520	297.117303	297.166663	297.073404	297.154963	297.065169	297.127835	297.087268
	297.483034	297.266045	297.212071	297.436900	297.384406	297.168551	297.152322	297.067789	297.136870	297.075277	297.087268	297.087643	297.139130	297.083894
	297.479538	297.267951	297.194264	297.480315	297.331774	297.157226	297.090643	297.062176	297.177242	297.096645	297.082770	297.074153	297.165152	297.089518
	297.464790	297.267951	297.210555	297.437674	297.340593	297.194643	297.155717	297.078648	297.175730	297.095895	297.167796	297.070783	297.154585	297.098522
	297.475655	297.221555	297.198808	297.493139	297.395579	297.196157	297.117303	297.094394	297.134234	297.089893	297.103777	297.074153	297.135364	297.119559
	297.470609	297.248532	297.168551	297.438447	297.347883	297.190101	297.098522	297.096270	297.162510	297.090268	297.165908	297.077150	297.155340	297.147043
	297.521559	297.223832	297.188209	297.499362	297.377862	297.197672	297.148174	297.110163	297.176108	297.140260	297.127835	297.137623	297.146290	297.094394
	297.472938	297.213967	297.157981	297.465566	297.325261	297.131222	297.117679	297.122944	297.189344	297.145536	297.105279	297.078273	297.137623	297.112041
	297.525848	297.284731	297.187830	297.439608	297.385176	297.138753	297.091393	297.075277	297.171573	297.110163	297.108660	297.079023	297.157981	297.092893
	297.521559	297.248152	297.221175	297.429165	297.370937	297.189722	297.156849	297.143651	297.203733	297.139507	297.122568	297.088018	297.129717	297.101149
	297.502085	297.281297	297.193507	297.431098	297.342127	297.163642	297.094769	297.067040	297.176108	297.139507	297.116176	297.059558	297.126706	297.111666
	297.516882	297.261474	297.171195	297.441930	297.313392	297.157226	297.144405	297.106782	297.196536	297.129717	297.111666	297.117679	297.133105	297.082770
	297.523508	297.222314	297.166285	297.463239	297.381326	297.177620	297.082770	297.059558	297.135364	297.073779	297.155340	297.100398	297.129717	297.071907
	297.461688	297.262998	297.213967	297.436126	297.329858	297.125201	297.079772	297.109036	297.186317	297.116176	297.146667	297.113169	297.154208	297.100774
	297.468281	297.208659	297.150060	297.453936	297.333691	297.153077	297.091768	297.100023	297.141767	297.134234	297.130093	297.099648	297.156472	297.145159
	297.520000	297.257285	297.216622	297.419890	297.355947	297.131975	297.074902	297.086893	297.119559	297.127835	297.136870	297.060680	297.137623	297.136870
	297.470609	297.193507	297.152699	297.428392	297.350570	297.177998	297.142521	297.113169	297.167041	297.115424	297.153831	297.082770	297.113920	297.071158
	297.449674	297.232186	297.208280	297.479926	297.309949	297.161755	297.111290	297.085768	297.182157	297.101900	297.148928	297.072281	297.124825	297.071532
	297.469057	297.239026	297.219657	297.490806	297.367860	297.138377	297.079023	297.063673	297.118807	297.137623	297.097021	297.079772	297.122944	297.082770
	297.509481	296.934607	297.131222	297.413325	297.288930	296.802292	296.660378	297.082395	296.714964	296.726930	296.741452	296.801561	296.718952	296.781853
	297.139507	296.849154	296.889220	297.108284	296.900272	296.763636	296.764364	296.648485	296.814720	297.115424	296.662181	296.803388	297.064047	297.118055
	297.483422	297.169684	297.125954	297.421821	296.959781	297.095144	297.088768	297.075277	296.790243	296.987984	297.139130	297.106031	296.726205	296.694688
	297.436513	296.772012	296.851723	297.033036	297.296187	297.129340	296.653169	296.825698	296.896955	297.057314	296.675894	296.788418	296.761452	296.656773
	297.306124	297.002485	296.862738	297.094394	296.967196	296.697583	297.083894	296.736368	296.887010	296.710254	296.858698	296.681312	296.844386	296.831924
	297.188965	296.976100	296.886274	297.146667	296.950149	296.687818	296.702287	296.850622	296.859432	296.831557	296.717501	296.781853	296.845486	296.808870
	297.119935	296.940895	296.906541	297.139507	297.070409	296.902484	296.770919	296.860167	296.845486	296.783676	296.748721	296.666871	296.780030	296.806311
	297.190479	296.989099	296.775656	297.130093	297.010673	296.831191	296.781124	296.983526	296.778936	296.665427	296.710979	296.724391	296.759268	296.697221
	297.089143	296.862738	296.762544	297.164397	296.937936	296.705546	296.741089	296.683119	296.762908	296.692880	296.737820	296.690710	296.710254	296.810698
	297.066666	296.797179	296.800466	297.093644	296.947557	296.859432	296.666510	296.794258	296.726930	296.698306	296.743996	296.797909	296.804119	296.805215
	297.196157	296.899535	296.753084	297.114672	297.019613	296.726568	296.820208	296.684203	296.846220	296.753811	296.715327	296.734552	296.758904	296.796813
	297.125954	296.826796	296.826064	297.074902	296.957187	296.717139	296.803753	296.680951	296.782947	296.727656	296.766184	296.755266	296.761816	296.828994
	297.181400	296.829360	296.819842	297.052081	296.927214	296.861269	296.701201	296.815086	296.745449	296.707719	296.817647	296.589215	296.620067	296.705908
	297.094394	296.912813	296.788783	297.057314	297.036768	296.747267	296.726205	296.714240	296.901010	296.730922	296.729470	296.703373	296.804484	296.716414
	297.091018	296.972389	296.832656	297.050959	296.975729	296.887378	296.720402	296.706994	296.757449	296.712428	296.775291	296.715689	296.882961	296.728019
	297.141390	296.822770	296.804850	297.094394	297.031544	296.823868	296.785135	296.814720	296.854659	296.726930	296.770919	296.718589	296.868985	296.703373
	297.077899	296.897324	296.796083	297.143274	296.915027	296.783676	296.835588	296.696497	296.777842	296.729833	296.709167	296.812892	296.801561	296.687456
	297.124449	296.833389	296.811063	297.068163	297.007695	296.733826	296.729107	296.823136	296.857963	296.780759	296.708805	296.665788	296.852457	296.765820
	297.092518	296.820940	296.790243	297.183291	296.930541	296.830092	296.697583	296.676617	296.737457	296.708443	296.725116	296.791338	296.728019	296.736731
	297.089893	296.829360	296.801196	297.116927	297.046102	296.772012	296.691433	296.704460	296.789148	296.706994	296.725842	296.801196	296.736004	296.700116
	297.144782	296.868985	296.880017	297.075277	296.955334	296.754903	296.809601	296.701201	296.798274	296.838886	296.757813	296.676256	296.879281	296.842552
	297.098522	296.857963	296.815086	297.150814	297.018123	296.765820	296.768369	296.758177	296.849888	296.757813	296.756721	296.772012	296.833389	296.776385
	297.113920	296.928323	296.829726	297.066292	297.006578	296.864208	296.766549	296.765456	296.753811	296.733826	296.715327	296.817647	296.882593	296.812526
	297.115424	296.860167	296.779301	297.188965	296.923150	296.777478	296.838886	296.820208	296.881121	296.831924	296.747267	296.698668	296.757085	296.816183
	297.209417	296.832656	296.822770	297.138377	297.076775	296.879649	296.708081	296.770555	296.747267	296.795353	296.854659	296.792068	296.761088	296.691072
	297.059184	296.886642	296.799370	297.127835	297.040874	296.729833	296.803753	296.789513	296.799005	296.734552	296.718226	296.683842	296.732737	296.770190
	297.209417	296.855026	296.774562	297.089893	296.964971	296.761816	296.736731	296.764364	296.819476	296.823136	296.838153	296.770919	296.777113	296.716052
	297.187074	296.830825	296.918719	297.052828	297.012535	296.728019	296.723303	296.704822	296.813623	296.835221	296.710616	296.692518	296.732374	296.797909
	297.050959	296.908385	296.801196	297.074528	297.005462	296.764000	296.799735	296.813989	296.812160	296.713515	296.751993	296.673728	296.785135	296.687456
	297.087268	296.904328	296.785500	297.155340	296.942005	296.846220	296.693965	296.668314	296.746176	296.686010	296.771648	296.657854	296.746540	296.781124
	297.066666	296.927584	296.797909	297.049838	296.992444	296.743269	296.739999	296.693603	296.749811	296.826430	296.700116	296.789878	296.725842	296.698306
	297.188209	296.875603	296.786229	297.156094	297.009184	296.777113	296.710616	296.697221	296.849888	296.684203	296.849154	296.688541	296.792433	296.674811
	297.061802	296.835221	296.788783	297.026323	297.061802	296.838153	296.701925	296.741816	296.763636	296.734552	296.725479	296.738546	296.708081	296.665067
	297.053202	296.859065	296.789513	297.172329	296.905803	296.833389	296.674811	296.815818	296.768369	296.684926	296.842552	296.705184	296.714964	296.669757
	297.071532	296.853925	296.800466	297.089143	296.939046	296.733463	296.704097	296.803388	296.814720	296.705546	296.825332	296.777842	296.743632	296.692518
	297.072281	296.874867	296.841819	297.058062	297.015515	296.709167	296.721490	296.728382	296.762544	296.790973	296.710254	296.687818	296.713515	296.676617
	297.091018	296.899904	296.828994	297.057688	296.937566	296.841452	296.705908	296.670840	296.851723	296.703735	296.846220	296.657494	296.782947	296.676978
	297.093269	296.859065	296.852457	297.028933	296.949408	296.775291	296.705184	296.763636	296.762908	296.820574	296.702649	296.781488	296.765456	296.700478
	297.073779	296.949408	296.794623	297.161000	296.946817	296.742906	296.714602	296.688541	296.863473	296.765092	296.724028	296.699030	296.849888	296.749084
	297.120687	296.887378	296.760724	297.044608	296.929062	296.729107	296.706270	296.731648	296.857963	296.675172	296.728382	296.754903	296.714602	296.695412
	297.070783	296.829360	296.905803	297.172329	297.057688	296.705908	296.672284	296.721490	296.739999	296.798274	296.722215	296.736731	296.713515	296.813989
	297.056940	296.834488	296.794623	297.143274	296.944226	296.863840	296.706994	296.691072	296.736731	296.670118	296.739636	296.758541	296.823502	296.758541
	297.073404	296.808139	296.911706	297.011046	297.032663	296.837786	296.816549	296.667231	296.759996	296.832290	296.848054	296.678784	296.808870	296.670479
	297.036395	296.834488	296.795718	297.143651	296.965341	296.739636	296.820574	296.683842	296.733826	296.706270	296.846586	296.713515	296.708443	296.777478
	297.072281	296.917611	296.788418	297.039754	296.899904	296.737094	296.767277	296.658215	296.766549	296.702649	296.828627	296.663624	296.705546	296.669396
	297.095520	296.963488	296.900272	297.171195	296.901747	296.842552	296.680229	296.677339	296.812526	296.710979	296.704097	296.678423	296.735278	296.712428
	297.038261	296.827895	296.810332	297.027068	296.942745	296.716052	296.823868	296.814720	296.811429	296.673367	296.808139	296.800100	296.862371	296.682758
	297.143651	296.849154	296.789878	297.021104	296.995790	296.712428	296.695774	296.695050	296.882225	296.730559	296.828261	296.685649	296.827895	296.726205
	297.140260	296.805215	296.901378	297.012535	296.979070	296.777842	296.677339	296.683480	296.862003	296.706632	296.801561	296.657854	296.706270	296.722578
	297.114296	296.961263	296.915396	297.040127	296.939416	296.740363	296.681674	296.735641	296.748357	296.678784	296.770190	296.685287	296.742906	296.681312
	297.037514	296.804119	296.775291	297.052081	296.913551	296.763636	296.821672	296.674089	296.844386	296.766549	296.724391	296.804850	296.715689	296.697221
	297.043488	296.837786	296.754175	297.012908	297.017005	296.739273	296.764364	296.798639	296.763636	296.697583	296.749448	296.656412	296.843286	296.772741
	297.198808	296.869352	296.857963	297.159113	296.934977	296.819842	296.759268	296.756721	296.870823	296.675894	296.705908	296.673728	296.751266	296.824600
	297.095520	296.833755	296.753084	297.147420	296.937196	296.740363	296.707719	296.663984	296.757085	296.703373	296.703735	296.803388	296.853191	296.821306
	297.034529	296.821306	296.874500	297.131222	297.045729	296.839986	296.825332	296.719677	296.727656	296.786959	296.843286	296.735278	296.736368	296.703735
	297.064795	296.808870	296.842186	297.043861	296.969050	296.733826	296.702649	296.659657	296.726568	296.730196	296.739999	296.714240	296.726930	296.793893
	297.154208	296.946076	296.814720	297.034529	297.044982	296.719314	296.720039	296.720039	296.758541	296.679867	296.690710	296.797909	296.855761	296.662542
	297.095895	296.870455	296.786594	297.151191	296.933498	296.774927	296.683119	296.716776	296.728019	296.777842	296.724754	296.731285	296.712790	296.698668
	297.199944	296.807408	296.869720	297.045729	296.947927	296.859800	296.690710	296.689625	296.743996	296.694327	296.768369	296.682396	296.736368	296.814354
	297.138753	296.836687	296.746903	297.131975	296.964229	296.738910	296.789148	296.683119	296.807042	296.699754	296.723303	296.733826	296.747994	296.817281
	297.184804	296.821306	296.796083	297.031544	296.945706	296.783311	296.738546	296.827895	296.756721	296.745086	296.796083	296.709167	296.863840	296.694327
	297.143651	296.865677	296.808504	297.171195	296.925736	296.849888	296.671923	296.697221	296.927584	296.777113	296.938676	297.098897	297.145913	297.111290
	297.291221	297.192372	296.773834	297.418345	297.359788	297.125201	297.160245	297.079023	297.161000	297.136494	297.167796	297.127459	297.128964	297.122944
	297.451999	297.257666	296.587066	297.479150	297.295041	297.141767	297.055071	297.054697	297.116552	297.067040	297.084644	297.103402	297.092143	297.109411
	297.419503	297.237505	297.114296	297.420662	297.314923	297.092518	297.052828	297.051333	297.120311	297.061802	297.129717	297.056940	297.114296	297.070035
	297.467505	297.165908	297.189722	297.396350	297.283586	297.136117	297.099272	297.038634	297.109787	297.047223	297.079023	297.057314	297.157603	297.111666
	297.478373	297.229527	297.188209	297.447351	297.317602	297.128211	297.128588	297.068912	297.197293	297.144405	297.093269	297.122944	297.126330	297.104153
	297.470609	297.256524	297.170062	297.451999	297.340209	297.181400	297.181400	297.144782	297.214347	297.100023	297.131975	297.150060	297.168174	297.109036
	297.512207	297.235605	297.186317	297.425686	297.347883	297.144405	297.166663	297.130846	297.190101	297.098522	297.113545	297.131222	297.168929	297.091018
	297.475267	297.232566	297.229527	297.454323	297.398663	297.185182	297.125577	297.095895	297.202596	297.143651	297.179132	297.144405	297.155340	297.153454
	297.523898	297.228008	297.196536	297.488085	297.382481	297.196536	297.136117	297.091768	297.206385	297.107909	297.136494	297.068912	297.107533	297.100774
	297.464015	297.197293	297.148551	297.375168	297.137623	296.710616	296.685287	296.504292	296.726930	296.746903	296.803023	296.674811	296.730922	296.678784
	297.047970	296.815818	296.761816	297.038261	296.963858	296.731648	296.803023	296.783676	296.810332	296.759268	296.814354	296.763272	296.699754	296.687818
	297.119559	296.861269	296.780030	296.986126	296.863105	296.708443	296.691795	296.667953	296.788054	296.736368	296.660378	296.552738	296.626535	296.622941
	297.018868	296.777113	296.706270	296.951260	296.844752	296.585992	296.451465	296.618271	296.712428	296.716414	296.647044	296.571319	296.684926	296.595665
	296.950519	296.560595	296.515672	296.915027	296.770190	296.614320	296.585276	296.521366	296.579190	296.498962	296.609295	296.712428	296.722578	296.786594
	297.077899	296.841086	296.821306	297.117303	296.917980	296.738183	296.570961	296.771283	296.723666	296.582411	296.465976	296.400305	296.499318	296.592798
	296.978327	296.721490	296.631209	296.935717	296.877074	296.703735	296.794988	296.818378	296.648125	296.775291	296.766913	296.667231	296.743269	296.725116
	297.069660	296.773469	296.692880	296.833755	296.839253	296.706270	296.726205	296.679145	296.648485	296.524214	296.508203	296.521366	296.665788	296.446161
	296.944226	296.747994	296.664706	296.895850	296.755994	296.469872	296.434502	296.593157	296.692518	296.433796	296.461019	296.468809	296.859432	296.763272
	297.111666	296.829360	296.789148	297.134611	296.952371	296.719677	296.789148	296.716052	296.742542	296.791703	296.787689	296.654250	296.785865	296.629411
	297.002113	296.776020	296.700478	296.993559	296.877442	296.683480	296.762180	296.740363	296.740363	296.654610	296.679867	296.633727	296.678423	296.616475
	297.076400	296.856862	296.696497	297.051333	296.921304	296.679867	296.623301	296.625816	296.684926	296.704460	296.718226	296.683119	296.726205	296.649566
	297.036021	296.750902	296.747994	296.994674	296.923889	296.742179	296.678784	296.640204	296.807773	296.650646	296.661820	296.714964	296.657133	296.710616
	297.118055	296.776020	296.721852	297.049465	296.948298	296.666510	296.707356	296.662181	296.782582	296.657494	296.671562	296.626176	296.685287	296.690348
	297.009184	296.768005	296.708081	296.975729	296.874867	296.793528	296.735278	296.668314	296.692880	296.482988	296.486891	296.399249	296.469163	296.454295
	296.870455	296.609654	296.507136	296.788783	296.658936	296.469872	296.433796	296.405938	296.491860	296.480151	296.519942	296.511047	296.469163	296.419329
	296.863473	296.716052	296.836687	297.055819	296.854659	296.675894	296.683842	296.759632	296.739999	296.741816	296.652448	296.662542	296.775656	296.711341
	297.042368	296.822770	296.766184	297.016260	296.900641	296.700840	296.707719	296.634806	296.718952	296.644164	296.679506	296.658575	296.737820	296.749811
	297.010673	296.796448	296.746540	297.084269	296.874132	296.746176	296.795353	296.679145	296.717139	296.752720	296.696859	296.708443	296.704097	296.746903
	297.007323	296.813257	296.741452	296.987241	296.868985	296.716414	296.745449	296.670479	296.824966	296.690710	296.724028	296.738183	296.704822	296.660017
	297.059184	296.808870	296.775291	297.100774	296.885906	296.757449	296.676617	296.705908	296.728019	296.741452	296.664345	296.692880	296.682758	296.659657
	297.084269	296.899904	296.817647	297.097021	296.947927	296.697944	296.685649	296.671562	296.836320	296.646684	296.802292	296.659296	296.789878	296.661099
	297.130093	296.898430	296.747267	297.008439	296.895481	296.683119	296.647404	296.647765	296.721490	296.661099	296.650646	296.766184	296.808870	296.780394
	297.013280	296.848787	296.738546	297.014025	296.902853	296.797544	296.743996	296.758177	296.816915	296.789878	296.703011	296.705184	296.701563	296.755994
	297.027814	296.764000	296.832656	297.017750	296.905066	296.700478	296.767277	296.674811	296.738910	296.789513	296.760724	296.657133	296.711341	296.674450
	297.039754	296.854659	296.790973	297.104528	296.865677	296.821672	296.766549	296.653529	296.730922	296.665427	296.679867	296.647044	296.660739	296.763636
	297.086143	296.817281	296.747267	296.997649	296.870823	296.686733	296.703011	296.642363	296.693603	296.673006	296.785500	296.620426	296.694688	296.668314
	297.014025	296.812526	296.722215	297.001741	296.955334	296.786594	296.665427	296.659296	296.708081	296.736004	296.779665	296.739636	296.778207	296.649205
	297.019240	296.905803	296.738183	297.098522	296.911706	296.795353	296.649566	296.656052	296.725842	296.761452	296.701925	296.736004	296.777113	296.689625
	297.033036	296.857596	296.744359	296.994674	296.944596	296.695412	296.680951	296.654250	296.703373	296.715689	296.689264	296.649566	296.696859	296.720402
	297.143651	296.894008	296.811795	296.985012	296.951630	296.672645	296.659296	296.625816	296.688541	296.636965	296.736731	296.643803	296.753084	296.676978
	297.098522	296.877442	296.741816	297.083894	296.881857	296.826064	296.759996	296.679867	296.802292	296.765820	296.656052	296.727293	296.704460	296.687818
	297.077524	296.874500	296.735278	296.985383	297.008812	296.754903	296.669757	296.655331	296.730196	296.656412	296.659296	296.755266	296.790243	296.648845
	297.136117	296.834855	296.742179	297.111666	296.933868	296.694327	296.671923	296.649205	296.735641	296.769826	296.673006	296.615398	296.818012	296.661820
	297.030798	296.784041	296.722215	297.105655	296.876706	296.792798	296.665788	296.683842	296.824234	296.710254	296.712065	296.632648	296.703373	296.702649
	296.978327	296.772376	296.763636	297.011046	296.978327	296.680951	296.670479	296.651367	296.724754	296.728019	296.687818	296.716776	296.781853	296.657494
	297.025577	296.794988	296.842919	296.995046	296.996905	296.747267	296.720764	296.635526	296.775656	296.695412	296.745086	296.750902	296.716052	296.657494
	297.132728	296.784041	296.780759	296.973502	296.891798	296.710979	296.666149	296.742542	296.741089	296.763636	296.711703	296.676617	296.691795	296.656412
	297.053949	296.884433	296.839986	297.109787	296.882961	296.699392	296.653889	296.762180	296.718226	296.666871	296.789148	296.645244	296.819110	296.635885
	297.144782	296.894376	296.737457	297.054697	296.892166	296.780394	296.707356	296.758177	296.816915	296.693241	296.721127	296.636965	296.700840	296.655691
	297.125577	296.821672	296.738910	296.997277	296.891061	296.778572	296.738546	296.721127	296.822038	296.748721	296.707719	296.634446	296.674811	296.653889
	297.023340	296.826796	296.801196	296.982412	296.974244	296.709530	296.738910	296.644524	296.703735	296.659657	296.784770	296.638764	296.807773	296.760724
	297.046102	296.783676	296.761816	296.999137	296.887378	296.695412	296.754903	296.759268	296.819110	296.770190	296.726930	296.762544	296.806311	296.658215
	297.104528	296.864575	296.736004	297.052081	296.885538	296.707719	296.669757	296.673728	296.808504	296.665067	296.666871	296.721852	296.802657	296.637685
	297.130470	296.828627	296.732011	296.999137	296.923150	296.804119	296.683480	296.678784	296.822038	296.651367	296.686010	296.716052	296.692518	296.649205
	297.132352	296.849888	296.824234	296.995046	296.970163	296.692518	296.719677	296.637685	296.685649	296.652448	296.648845	296.615757	296.794623	296.699030
	297.102651	296.783311	296.792433	297.102276	296.871558	296.693241	296.754539	296.726205	296.734915	296.663263	296.789148	296.638404	296.794988	296.764728
	297.133481	296.808139	296.733826	296.986869	296.871190	296.701925	296.694327	296.769826	296.696859	296.775291	296.690348	296.720039	296.692880	296.657133
	297.024086	296.791338	296.835954	296.996533	297.002485	296.700478	296.773834	296.650646	296.716052	296.716052	296.696497	296.697944	296.685649	296.741452
	297.022595	296.777478	296.836320	296.987241	296.997649	296.698668	296.644164	296.714240	296.715327	296.750175	296.682035	296.693603	296.754175	296.649566
	296.985755	296.744723	296.691433	296.972389	296.848054	296.768369	296.674450	296.629411	296.704822	296.746903	296.678061	296.618271	296.788418	296.651367
	297.095895	296.744359	296.686372	297.085394	296.869352	296.794258	296.696859	296.630490	296.762908	296.736368	296.642003	296.692518	296.765456	296.666149
	296.977585	296.807408	296.801561	296.960893	296.941635	296.761452	296.649926	296.622223	296.692156	296.735641	296.673367	296.602478	296.671562	296.777478
	297.076400	296.764000	296.705184	296.967196	296.960522	296.656052	296.708081	296.699392	296.708081	296.653529	296.662902	296.626176	296.677700	296.770190
