LabVIEW Measurement	
Writer_Version	2
Reader_Version	2
Separator	Tab
Decimal_Separator	.
Multi_Headings	No
X_Columns	No
Time_Pref	Relative
Operator	ANDAI35
Date	2022/04/22
Time	17:47:13.9221935272216796875
***End_of_Header***	
	
Channels	14														
Samples	1	1	1	1	1	1	1	1	1	1	1	1	1	1	
Date	2022/04/22	2022/04/22	2022/04/22	2022/04/22	2022/04/22	2022/04/22	2022/04/22	2022/04/22	2022/04/22	2022/04/22	2022/04/22	2022/04/22	2022/04/22	2022/04/22	
Time	17:47:13.9221935272216796875	17:47:13.9221935272216796875	17:47:13.9221935272216796875	17:47:13.9221935272216796875	17:47:13.9221935272216796875	17:47:13.9221935272216796875	17:47:13.9221935272216796875	17:47:13.9221935272216796875	17:47:13.9221935272216796875	17:47:13.9221935272216796875	17:47:13.9221935272216796875	17:47:13.9221935272216796875	17:47:13.9221935272216796875	17:47:13.9221935272216796875	
X_Dimension	Time	Time	Time	Time	Time	Time	Time	Time	Time	Time	Time	Time	Time	Time	
X0	0.0000000000000000E+0	0.0000000000000000E+0	0.0000000000000000E+0	0.0000000000000000E+0	0.0000000000000000E+0	0.0000000000000000E+0	0.0000000000000000E+0	0.0000000000000000E+0	0.0000000000000000E+0	0.0000000000000000E+0	0.0000000000000000E+0	0.0000000000000000E+0	0.0000000000000000E+0	0.0000000000000000E+0	
Delta_X	1.000000	1.000000	1.000000	1.000000	1.000000	1.000000	1.000000	1.000000	1.000000	1.000000	1.000000	1.000000	1.000000	1.000000	
***End_of_Header***															
X_Value	Untitled	Untitled 1	Untitled 2	Untitled 3	Untitled 4	Untitled 5	Untitled 6	Untitled 7	Untitled 8	Untitled 9	Untitled 10	Untitled 11	Untitled 12	Untitled 13	Comment
	296.944966	296.708081	296.684203	296.920196	296.860901	296.821306	296.780030	296.754903	296.805946	296.799735	296.811795	296.742906	296.858331	296.796083
	296.936456	296.746903	296.672284	296.918350	296.831557	296.808870	296.819842	296.742179	296.845486	296.795353	296.769462	296.808870	296.829726	296.791703
	296.962375	296.751629	296.692518	296.953112	296.820940	296.808870	296.816915	296.740363	296.845486	296.818744	296.796448	296.752720	296.801927	296.808139
	297.000997	296.737094	296.669396	296.925736	296.862003	296.800100	296.781488	296.800466	296.826430	296.755630	296.801561	296.757449	296.857963	296.833755
	296.944966	296.694327	296.676617	296.970163	296.840719	296.795353	296.770555	296.754903	296.838886	296.822404	296.789878	296.745813	296.856862	296.820940
	296.970534	296.768369	296.704097	296.935347	296.865310	296.845853	296.781124	296.749084	296.858331	296.828994	296.799735	296.755266	296.866045	296.801196
	296.943856	296.763636	296.715327	296.974987	296.836320	296.795718	296.765820	296.751993	296.807773	296.768005	296.825332	296.771648	296.856128	296.789513
	296.942375	296.747630	296.674450	296.966083	296.871926	296.842552	296.770919	296.807042	296.851356	296.793893	296.811795	296.801927	296.820940	296.786594
	296.944966	296.723666	296.716414	296.942005	296.860167	296.864208	296.786229	296.753448	296.814354	296.784770	296.835954	296.798639	296.827163	296.813623
	296.955334	296.700840	296.691433	296.926845	296.857229	296.836320	296.801927	296.774198	296.810698	296.759632	296.836320	296.746540	296.809967	296.769826
	296.944226	296.698668	296.710616	296.950519	296.836687	296.815818	296.809235	296.780030	296.841452	296.758177	296.808139	296.766549	296.811429	296.779301
	296.999509	296.749811	296.648125	296.963117	296.805580	296.833755	296.773105	296.742906	296.863840	296.805946	296.829360	296.754175	296.804850	296.788418
	296.949408	296.753448	296.667953	296.919827	296.835221	296.800466	296.807408	296.749084	296.808870	296.791703	296.767641	296.813623	296.806677	296.775656
	296.980926	296.747630	296.685649	296.899167	296.855026	296.832656	296.816915	296.738546	296.844019	296.782217	296.774198	296.782947	296.837786	296.781124
	296.945706	296.733826	296.686733	296.949038	296.854659	296.793528	296.812526	296.753811	296.843652	296.758177	296.768369	296.754175	296.866412	296.812892
	296.982412	296.712065	296.668675	296.969421	296.808139	296.795353	296.789878	296.780759	296.816183	296.759268	296.797909	296.747267	296.805946	296.782217
	296.979070	296.736004	296.653169	296.908016	296.860534	296.837786	296.786229	296.762544	296.830459	296.792798	296.556666	296.781124	296.804484	296.772012
	296.946817	296.702287	296.713152	296.918350	296.830092	296.807042	296.769462	296.759996	296.821672	296.812892	296.777478	296.763636	296.834855	296.830092
	296.999137	296.773105	296.716776	296.922781	296.842552	296.811063	296.804484	296.746903	296.857963	296.783311	296.802292	296.806677	296.817281	296.776749
	296.969792	296.734552	296.645604	296.963488	296.813623	296.796813	296.770555	296.744723	296.826430	296.818744	296.760724	296.757085	296.855026	296.805215
	296.989842	296.733463	296.663263	296.903590	296.840352	296.808504	296.752720	296.752720	296.807042	296.782582	296.758541	296.798639	296.807773	296.776749
	296.997277	296.755630	296.673728	296.950519	296.800466	296.822770	296.767641	296.788418	296.866412	296.784406	296.800831	296.770555	296.792798	296.818012
	296.967196	296.745449	296.661460	296.957928	296.797544	296.802292	296.768005	296.755994	296.799735	296.751629	296.764364	296.803388	296.796083	296.768005
	296.942745	296.698668	296.671201	296.947187	296.832290	296.792433	296.777113	296.757449	296.837053	296.796813	296.809235	296.757085	296.841819	296.802657
	296.989470	296.697221	296.640564	296.929062	296.860534	296.797179	296.772012	296.793893	296.848787	296.761452	296.772012	296.778936	296.819110	296.769098
	296.979812	296.706632	296.666149	296.929062	296.796813	296.851356	296.753448	296.734915	296.806677	296.749084	296.807773	296.776020	296.794258	296.822770
	296.978327	296.739636	296.670479	296.956816	296.817281	296.796813	296.811795	296.731285	296.810698	296.765820	296.794258	296.761088	296.862003	296.771283
	296.948298	296.696135	296.700840	296.898430	296.792433	296.790973	296.752720	296.748357	296.826796	296.805215	296.800831	296.742542	296.823868	296.819476
	296.934607	296.687818	296.657133	296.915396	296.850989	296.834855	296.749084	296.739636	296.735641	296.766913	296.759632	296.747994	296.842186	296.765456
	296.993187	296.712428	296.639844	296.944226	296.861636	296.835221	296.815452	296.774562	296.826064	296.780394	296.794623	296.790608	296.791338	296.813989
	296.990585	296.743632	296.654610	296.895850	296.836320	296.852090	296.806677	296.750175	296.800466	296.807042	296.803753	296.777478	296.837053	296.818378
	296.958298	296.697221	296.677700	296.921673	296.861636	296.807042	296.787689	296.791703	296.826796	296.790973	296.788054	296.768369	296.817281	296.823136
	296.976842	296.745449	296.705546	296.914658	296.793528	296.844386	296.816183	296.746540	296.818378	296.815818	296.761816	296.803023	296.821672	296.779301
	296.933498	296.689987	296.643443	296.963858	296.817281	296.804484	296.788783	296.795718	296.865310	296.813623	296.782582	296.769098	296.812160	296.772741
	296.960151	296.690710	296.701201	296.951260	296.793163	296.845486	296.754175	296.795718	296.802657	296.800831	296.808139	296.733100	296.818012	296.810698
	296.948668	296.709892	296.645604	296.950889	296.823136	296.820940	296.818012	296.758177	296.807773	296.762180	296.807773	296.752720	296.812526	296.797179
	296.956446	296.722578	296.669757	296.956816	296.811063	296.791703	296.802292	296.802292	296.836320	296.773834	296.759996	296.732374	296.847687	296.761452
	296.941265	296.758904	296.637685	296.937566	296.848421	296.818012	296.810698	296.792798	296.841086	296.761816	296.786959	296.768369	296.831557	296.813623
	296.930171	296.691072	296.664706	296.955705	296.816549	296.852090	296.790608	296.774562	296.850989	296.761088	296.763636	296.738183	296.840352	296.772376
	296.995418	296.687456	296.683119	296.915765	296.863105	296.805215	296.770919	296.741089	296.864208	296.767641	296.773469	296.733826	296.844752	296.761088
	296.975729	296.711703	296.688179	296.895481	296.858331	296.804119	296.765456	296.748357	296.846953	296.803388	296.766184	296.802657	296.839253	296.755630
	296.961634	296.738910	296.665427	296.891061	296.827895	296.814720	296.783311	296.773834	296.793528	296.813257	296.759268	296.738183	296.808139	296.775291
	296.933868	296.701563	296.658575	296.934238	296.826796	296.842186	296.749448	296.793893	296.833389	296.782217	296.814354	296.775291	296.818378	296.758177
	296.992072	296.707356	296.638404	296.940155	296.846586	296.841086	296.810332	296.797544	296.865310	296.761088	296.777113	296.772741	296.845486	296.792068
	296.940895	296.701563	296.664706	296.961263	296.828994	296.782947	296.792068	296.767641	296.803388	296.783311	296.781124	296.738183	296.834488	296.811063
	296.931650	296.689987	296.687456	296.894376	296.798639	296.799735	296.811795	296.756358	296.807773	296.811795	296.760724	296.747630	296.845486	296.820574
	296.926845	296.691433	296.663984	296.914658	296.833389	296.811063	296.800466	296.774562	296.831924	296.778207	296.597458	296.791338	296.807042	296.801196
	296.978327	296.698668	296.662902	296.926106	296.843286	296.808139	296.749448	296.761452	296.860534	296.761452	296.804850	296.743632	296.858698	296.774562
	296.952741	296.712065	296.641283	296.913920	296.842186	296.803388	296.774198	296.740726	296.844752	296.742179	296.822770	296.743996	296.837420	296.784041
	296.956075	296.684926	296.679867	296.912075	296.818012	296.794988	296.769098	296.785135	296.826796	296.755266	296.785865	296.747994	296.802657	296.808139
